# HEADER: Start
# TEM_PIXperUM          1.000000
# x-star                0.547269
# y-star                0.715662
# z-star                0.696836
# WorkingDistance       16.080000
# SampleTiltAngle       69.900002
# CameraElevationAngle  5.000000
# CameraAzimuthalAngle  0.000000
#
# Phase 1
# MaterialName  	Titanium (Alpha)
# Formula     	Ti
# Info		
# Symmetry              62
# PointGroupID          126
# LatticeConstants      2.950 2.950 4.680  90.000  90.000 120.000
# NumberFamilies        8
# hklFamilies   	 1  0  0 1 0.000000 1
# hklFamilies   	 0  0  2 1 0.000000 1
# hklFamilies   	 1  0  1 1 0.000000 1
# hklFamilies   	 1  0  2 1 0.000000 1
# hklFamilies   	 1  1  0 1 0.000000 1
# hklFamilies   	 1  0  3 1 0.000000 1
# hklFamilies   	 1  1  2 1 0.000000 1
# hklFamilies   	 2  0  1 1 0.000000 1
# GRID: SqrGrid
# XSTEP: 0.400000
# YSTEP: 0.400000
# NCOLS_ODD: 13
# NCOLS_EVEN: 13
# NROWS: 13
#
# OPERATOR: 	
#
# SAMPLEID: 	
#
# SCANID: 	
#
# VERSION 7
# NOTES: Start
# Version 1: phi1, PHI, phi2, x, y, iq (x*=0.1 & y*=0.1)
# Version 2: phi1, PHI, phi2, x, y, iq, ci
# Version 3: phi1, PHI, phi2, x, y, iq, ci, phase
# Version 4: phi1, PHI, phi2, x, y, iq, ci, phase, sem
# Version 5: phi1, PHI, phi2, x, y, iq, ci, phase, sem, fit
# Version 6: phi1, PHI, phi2, x, y, iq, ci, phase, sem, fit, PRIAS Bottom Strip, PRIAS Center Square, PRIAS Top Strip, Custom Value
# Version 7: phi1, PHI, phi2, x, y, iq, ci, phase, sem, fit. PRIAS, Custom, EDS and CMV values included if valid
# Phase index: 0 for single phase, starting at 1 for multiphase
# CMV = Correlative Microscopy value
# EDS = cumulative counts over a specific range of energies
# SEM = any external detector signal but usually the secondary electron detector signal
# NOTES: End
# COLUMN_COUNT: 13
# COLUMN_HEADERS: phi1, PHI, phi2, x, y, IQ, CI, Phase index, SEM, Fit, PRIAS Bottom Strip, PRIAS Center Square, PRIAS Top Strip
# COLUMN_UNITS: radians, radians, radians, microns, microns, , , , , degrees, , , 
# COLUMN_NOTES: Start
# Column 1: phi1 [radians]
# Column 2: PHI [radians]
# Column 3: phi2 [radians]
# Column 4: x [microns]
# Column 5: y [microns]
# Column 6: IQ
# Column 7: CI
# Column 8: Phase index
# Column 9: SEM
# Column 10: Fit [degrees]
# Column 11: PRIAS Bottom Strip
# Column 12: PRIAS Center Square
# Column 13: PRIAS Top Strip
# COLUMN_NOTES: End
# HEADER: End
  0.22367   2.03754   6.14207      0.00000      0.00000 6273.1  0.714  0  21224  0.464 1464.911865 2052.765381 1329.810059
  0.22566   2.03549   6.14487      0.40000      0.00000 6174.0  0.714  0  21636  0.550 1449.975830 2059.315430 1323.007324
  0.23005   2.04107   6.14258      0.80000      0.00000 5146.5  0.400  0  20553  1.019 1440.705566 2042.173828 1323.306763
  3.77724   0.42841   0.45153      1.20000      0.00000 5674.1  0.686  0  20766  0.668 1422.023438 2024.035889 1319.510254
  3.75635   0.43571   0.47066      1.60000      0.00000 5947.7  0.714  0  21425  0.376 1406.544800 2030.282471 1296.484863
  3.76226   0.43193   0.46406      2.00000      0.00000 6060.7  0.800  0  20731  0.391 1406.790894 2033.477295 1300.919556
  3.76183   0.42855   0.45974      2.40000      0.00000 6167.4  0.714  0  21816  0.317 1410.679321 2035.924194 1318.188477
  3.76634   0.42353   0.45397      2.80000      0.00000 6390.6  0.686  0  21913  0.554 1409.991699 2007.590210 1318.276001
  3.76582   0.42453   0.45670      3.20000      0.00000 6331.6  0.686  0  22532  0.491 1391.133789 2048.720703 1317.977783
  3.76346   0.43039   0.45706      3.60000      0.00000 6566.6  0.714  0  22009  0.350 1401.630371 2038.173218 1315.529785
  3.76865   0.43504   0.45277      4.00000      0.00000 6522.5  0.686  0  22240  0.379 1398.782227 2011.072998 1320.796997
  3.77067   0.43440   0.44961      4.40000      0.00000 6640.3  0.829  0  22014  0.413 1412.902222 2021.673950 1325.622803
  3.76711   0.43047   0.45234      4.80000      0.00000 6661.6  0.743  0  21722  0.687 1430.875488 1994.182251 1318.144653
  0.22694   2.04134   6.14871      0.00000      0.40000 6412.0  0.629  0  22239  0.453 1474.833008 2045.358887 1331.958130
  3.37081   1.10391   1.18453      0.40000      0.40000 6422.6  0.657  0  21606  0.368 1462.738159 2078.908447 1318.501953
  0.23228   2.03577   6.14503      0.80000      0.40000 5820.8  0.714  0  20628  0.341 1456.041382 2054.687500 1306.005493
  3.77109   0.43375   0.45658      1.20000      0.40000 4865.7  0.429  0  21134  1.174 1448.885376 1999.092651 1325.017822
  3.76582   0.42937   0.45872      1.60000      0.40000 5721.1  0.829  0  21034  0.339 1457.834229 1975.331299 1331.063843
  3.76864   0.42884   0.45614      2.00000      0.40000 6153.8  0.857  0  20668  0.388 1432.342407 1999.182129 1333.773438
  3.77748   0.42475   0.44802      2.40000      0.40000 6305.4  0.714  0  21223  0.397 1420.286987 2031.545410 1319.553711
  3.77310   0.42914   0.45144      2.80000      0.40000 6255.4  0.829  0  21233  0.418 1425.671875 2031.305298 1317.231567
  3.77835   0.43315   0.44771      3.20000      0.40000 6199.7  0.886  0  21977  0.519 1417.743530 2018.989746 1326.191772
  3.77452   0.43051   0.45079      3.60000      0.40000 6407.4  0.800  0  22023  0.436 1434.136963 2011.433472 1324.463989
  3.76763   0.43224   0.45535      4.00000      0.40000 6582.9  0.657  0  21532  0.383 1425.687744 1970.026611 1327.214722
  3.76877   0.43211   0.45469      4.40000      0.40000 6835.2  0.686  0  20936  0.381 1432.248535 2025.749878 1321.978760
  3.78711   0.43120   0.43391      4.80000      0.40000 6558.7  0.857  0  22304  0.435 1421.698975 2019.125977 1310.871094
  0.22008   2.04317   6.15145      0.00000      0.80000 6424.5  0.429  0  21522  0.595 1443.434448 2064.127930 1316.587280
  0.22790   2.04007   6.14702      0.40000      0.80000 6587.7  0.629  0  21810  0.473 1434.470215 2063.148193 1321.017090
  0.22091   2.04585   6.14658      0.80000      0.80000 6440.1  0.686  0  21115  0.749 1444.991333 2063.743652 1318.101929
  0.22166   2.04461   6.14499      1.20000      0.80000 5121.9  0.457  0  20556  0.773 1442.998901 2016.129639 1325.869629
  3.75363   0.43220   0.46787      1.60000      0.80000 5362.8  0.714  0  20977  0.353 1435.645142 1965.072632 1324.553589
  3.77478   0.42436   0.45064      2.00000      0.80000 6019.2  0.857  0  20792  0.481 1423.508545 2018.953613 1335.307983
  3.76912   0.42919   0.45960      2.40000      0.80000 6255.2  0.829  0  21774  0.514 1425.802002 2029.558960 1322.810425
  3.77657   0.42784   0.45384      2.80000      0.80000 6147.8  0.771  0  21074  0.454 1424.656616 2055.907715 1307.304810
  3.77552   0.42482   0.45113      3.20000      0.80000 6328.9  0.771  0  20855  0.546 1427.557251 2047.621948 1305.338013
  3.78281   0.43238   0.44243      3.60000      0.80000 6328.2  0.886  0  22737  0.569 1432.832886 2003.370239 1315.341064
  3.76864   0.43227   0.45118      4.00000      0.80000 6381.7  0.686  0  21893  0.333 1421.876099 2007.957642 1318.059326
  3.77486   0.43571   0.44547      4.40000      0.80000 6747.2  0.829  0  21284  0.403 1440.534302 2030.355957 1315.356812
  3.78476   0.43380   0.43260      4.80000      0.80000 6784.3  0.857  0  22456  0.381 1446.104858 2025.902954 1327.595337
  0.22296   2.04071   6.14982      0.00000      1.20000 6198.8  0.429  0  21290  0.648 1413.394775 2039.300415 1317.689087
  0.22020   2.04421   6.14982      0.40000      1.20000 6532.7  0.629  0  21465  0.688 1436.413208 2031.534058 1323.286621
  0.22114   2.04706   6.14873      0.80000      1.20000 6257.1  0.657  0  21380  0.716 1432.953613 2056.496826 1319.356079
  0.22316   2.04477   6.14908      1.20000      1.20000 5862.2  0.714  0  21618  0.992 1410.283936 2067.590576 1313.300781
  3.79015   0.42175   0.43924      1.60000      1.20000 4747.4  0.000  0  21132  1.689 1396.342773 2025.468506 1319.862061
  3.77476   0.42675   0.45381      2.00000      1.20000 5343.6  0.857  0  20966  0.595 1400.060425 2024.239502 1319.931152
  3.77702   0.42553   0.44930      2.40000      1.20000 5520.0  0.857  0  21246  0.502 1397.173462 2016.515869 1314.586670
  3.78964   0.42688   0.43837      2.80000      1.20000 5854.4  0.714  0  21629  0.455 1407.692505 2041.247314 1313.234375
  3.78300   0.42754   0.44319      3.20000      1.20000 6464.7  0.714  0  21527  0.524 1416.085571 2029.884766 1320.249023
  3.78760   0.42863   0.43959      3.60000      1.20000 6158.9  0.800  0  21659  0.619 1429.951050 2016.045166 1328.268311
  3.77712   0.42970   0.44661      4.00000      1.20000 6495.8  0.686  0  20892  0.512 1431.972778 2039.994751 1333.428345
  3.77521   0.43590   0.44641      4.40000      1.20000 6748.9  0.800  0  22043  0.428 1440.633789 2019.616577 1334.131958
  3.79058   0.43647   0.43002      4.80000      1.20000 6724.4  0.800  0  21396  0.371 1463.553955 1995.716675 1342.069092
  0.22024   2.04234   6.14993      0.00000      1.60000 6467.0  0.429  0  21263  0.634 1425.745483 2045.023315 1315.889526
  0.22811   2.04454   6.15112      0.40000      1.60000 6500.7  0.686  0  20725  0.723 1439.821533 2066.031738 1310.732910
  0.22005   2.04432   6.15206      0.80000      1.60000 6506.3  0.686  0  22413  0.774 1439.969238 2058.029053 1319.218994
  0.22685   2.04327   6.15367      1.20000      1.60000 6412.7  0.714  0  21321  0.504 1414.733154 2045.080933 1314.943115
  0.22637   2.04255   6.15501      1.60000      1.60000 5137.6  0.114  0  21117  0.797 1398.109375 2064.406494 1314.148804
  3.78050   0.42810   0.44772      2.00000      1.60000 4889.3  0.714  0  21430  0.718 1393.134033 2029.569946 1312.337646
  0.62482   2.71068   0.58779      2.40000      1.60000 5397.3  0.829  0  21676  0.534 1393.726074 2021.975830 1310.246826
  3.77296   0.43825   0.45656      2.80000      1.60000 5949.8  0.714  0  20878  0.344 1423.024292 2030.606079 1313.207764
  3.78974   0.43176   0.43812      3.20000      1.60000 6123.4  0.771  0  21508  0.546 1416.256592 2017.635376 1334.407227
  3.77920   0.43559   0.44895      3.60000      1.60000 6207.4  0.886  0  22193  0.458 1424.674072 2015.453735 1336.556274
  3.78975   0.43208   0.43697      4.00000      1.60000 6433.2  0.686  0  21639  0.405 1429.986084 2021.933838 1331.988892
  3.78147   0.43223   0.44431      4.40000      1.60000 6763.7  0.657  0  22219  0.540 1425.971680 2029.196899 1334.652832
  3.79871   0.43308   0.42410      4.80000      1.60000 6573.5  0.800  0  21741  0.638 1441.861450 1955.009521 1318.042725
  0.22074   2.03806   6.14885      0.00000      2.00000 6585.8  0.486  0  21555  0.610 1447.563965 2040.274292 1317.447632
  0.22974   2.04240   6.15146      0.40000      2.00000 6422.2  0.686  0  21782  0.647 1429.775757 2078.257080 1319.571045
  3.36065   1.09592   1.17805      0.80000      2.00000 6528.3  0.629  0  21914  0.562 1419.286133 2082.789307 1319.749268
  0.22582   2.04415   6.15330      1.20000      2.00000 6237.0  0.714  0  21267  0.434 1429.662476 2063.083252 1312.937988
  0.22093   2.04050   6.14800      1.60000      2.00000 5612.6  0.571  0  20329  0.591 1428.879272 2068.625488 1312.933105
  3.78032   0.43164   0.44954      2.00000      2.00000 4413.6  0.686  0  20443  0.965 1408.189941 2056.872314 1320.799805
  3.76050   0.43627   0.46923      2.40000      2.00000 5276.9  0.714  0  20625  0.546 1421.872681 2060.910645 1326.091309
  3.75765   0.43655   0.47154      2.80000      2.00000 5765.6  0.714  0  21132  0.247 1409.300293 2035.216064 1312.401001
  3.76042   0.43518   0.47256      3.20000      2.00000 5881.2  0.714  0  21148  0.347 1396.788940 2031.990112 1314.098022
  3.76066   0.43295   0.46639      3.60000      2.00000 5887.4  0.857  0  20829  0.566 1404.523071 1992.635498 1321.109009
  3.77582   0.43584   0.44595      4.00000      2.00000 6348.3  0.686  0  21920  0.378 1401.463013 1992.647705 1325.813232
  3.78671   0.43505   0.43496      4.40000      2.00000 6349.4  0.686  0  21424  0.464 1385.359619 2030.178589 1317.349121
  3.78180   0.43625   0.43763      4.80000      2.00000 6415.2  0.686  0  21325  0.361 1411.700195 1993.940674 1323.254639
  0.22520   2.03827   6.15125      0.00000      2.40000 6594.1  0.714  0  21556  0.661 1453.805176 2015.272217 1330.769775
  0.22763   2.04241   6.15417      0.40000      2.40000 6721.2  0.629  0  21770  0.468 1448.124146 2007.761841 1331.158081
  0.22464   2.04564   6.15300      0.80000      2.40000 6823.1  0.629  0  21801  0.480 1441.736572 2048.856689 1325.165161
  0.22606   2.04334   6.15365      1.20000      2.40000 6470.5  0.657  0  21561  0.507 1442.284668 2032.420532 1331.637817
  0.22627   2.04336   6.15228      1.60000      2.40000 6090.9  0.714  0  20952  0.450 1448.671021 2057.566162 1329.333496
  0.22178   2.04107   6.15576      2.00000      2.40000 4754.5  0.714  0  20809  0.902 1418.333008 2072.776611 1315.147339
  3.78186   0.43146   0.44652      2.40000      2.40000 5085.7  0.800  0  21045  0.658 1407.704468 2053.943115 1321.744873
  3.76511   0.42776   0.46877      2.80000      2.40000 5681.7  0.771  0  21240  0.532 1409.590698 2062.450439 1317.305176
  3.76356   0.43652   0.47278      3.20000      2.40000 6253.5  0.714  0  21112  0.474 1420.212036 2056.878662 1321.240112
  3.76883   0.43891   0.45926      3.60000      2.40000 6050.1  0.857  0  21246  0.564 1406.259155 2034.441528 1299.661255
  3.78107   0.43201   0.44423      4.00000      2.40000 6311.0  0.829  0  21259  0.687 1401.963379 2016.956665 1313.329224
  3.77622   0.43537   0.44549      4.40000      2.40000 6424.3  0.629  0  21716  0.358 1420.470947 2008.472656 1325.748535
  3.78484   0.42885   0.44117      4.80000      2.40000 6495.4  0.600  0  21432  0.793 1438.443848 1980.204102 1328.050049
  0.22407   2.03878   6.15079      0.00000      2.80000 6716.0  0.629  0  21539  0.484 1474.794922 2019.580933 1329.118042
  3.37088   1.10499   1.17835      0.40000      2.80000 6924.7  0.657  0  21151  0.640 1445.715454 2023.687500 1325.364868
  0.22125   2.04224   6.15108      0.80000      2.80000 7053.2  0.714  0  21007  0.593 1454.442383 2041.167480 1317.100708
  0.22162   2.03975   6.15160      1.20000      2.80000 6731.6  0.686  0  20664  0.743 1455.410156 2040.053467 1331.005615
  0.22774   2.04218   6.15314      1.60000      2.80000 6868.3  0.629  0  21223  0.476 1462.937378 2038.263794 1336.165649
  0.22901   2.03729   6.15515      2.00000      2.80000 6219.2  0.714  0  20985  0.609 1431.029297 2044.426758 1312.386963
  3.77581   0.43332   0.45610      2.40000      2.80000 4925.4  0.429  0  20758  0.976 1409.620972 2031.692505 1306.857666
  3.75676   0.43410   0.47298      2.80000      2.80000 5791.2  0.343  0  21091  0.605 1419.081909 2050.917969 1319.554443
  3.75845   0.43420   0.47298      3.20000      2.80000 6187.8  0.714  0  20704  0.458 1426.453125 2049.665283 1316.235840
  3.76339   0.43147   0.46730      3.60000      2.80000 6411.1  0.743  0  21086  0.582 1431.294922 2026.454590 1305.654175
  3.78496   0.43367   0.44154      4.00000      2.80000 6559.1  0.714  0  21233  0.671 1427.629639 2053.466797 1323.435913
  3.77608   0.43447   0.44829      4.40000      2.80000 6447.5  0.771  0  21728  0.485 1413.025024 2056.607178 1325.415771
  3.79873   0.43395   0.42861      4.80000      2.80000 6536.5  0.829  0  22124  0.506 1423.788086 2022.518677 1326.547363
  0.22613   2.03423   6.15201      0.00000      3.20000 6573.0  0.657  0  22178  0.596 1457.713745 2010.217529 1332.074219
  0.22650   2.03152   6.15520      0.40000      3.20000 7003.4  0.714  0  21751  0.618 1482.698608 1978.605103 1328.709839
  3.37005   1.10047   1.17535      0.80000      3.20000 7282.0  0.714  0  20782  0.532 1473.366577 1991.360474 1325.607910
  0.22971   2.04038   6.15507      1.20000      3.20000 7025.8  0.714  0  20914  0.679 1457.709839 1996.190674 1328.223877
  0.22490   2.04384   6.15198      1.60000      3.20000 6938.5  0.657  0  21069  0.525 1450.836914 1977.807739 1328.252075
  0.22713   2.03154   6.15895      2.00000      3.20000 6628.0  0.686  0  20802  0.618 1464.631592 2018.100464 1316.832764
  3.37477   1.11105   1.16875      2.40000      3.20000 5216.2  0.686  0  20955  0.607 1449.012573 2037.791626 1309.567139
  3.78300   0.43215   0.45277      2.80000      3.20000 5416.0  0.686  0  20315  0.826 1427.836304 2010.840088 1310.741211
  3.77059   0.42497   0.46132      3.20000      3.20000 6020.8  0.714  0  20827  0.704 1436.053833 2011.099365 1328.303711
  3.76464   0.44015   0.46370      3.60000      3.20000 6313.7  0.857  0  21904  0.406 1430.783936 2021.288452 1321.887451
  3.77485   0.43623   0.45453      4.00000      3.20000 6547.0  0.800  0  22142  0.639 1420.606323 2041.030151 1328.512207
  3.79610   0.43872   0.43326      4.40000      3.20000 6381.3  0.743  0  21744  0.500 1407.297852 2013.054077 1330.833252
  3.80098   0.43074   0.42744      4.80000      3.20000 6495.1  0.714  0  22884  0.510 1425.545898 2004.100342 1323.572144
  3.37872   1.10870   1.16878      0.00000      3.60000 6563.1  0.743  0  20932  0.516 1453.294678 2006.326050 1329.223267
  3.37858   1.10765   1.16551      0.40000      3.60000 6798.3  0.743  0  21540  0.530 1474.802002 2009.463745 1321.956665
  0.23454   2.04249   6.16431      0.80000      3.60000 7033.1  0.571  0  21324  0.411 1461.813354 2012.472290 1328.840088
  0.23024   2.04161   6.15520      1.20000      3.60000 6895.7  0.743  0  21578  0.549 1467.003906 1997.856201 1330.717651
  0.23253   2.03977   6.15793      1.60000      3.60000 6689.1  0.657  0  21293  0.490 1461.257690 2024.355225 1331.123779
  3.37707   1.10265   1.17054      2.00000      3.60000 6586.5  0.657  0  20885  0.550 1473.836060 2035.963379 1329.426758
  3.37340   1.10065   1.16590      2.40000      3.60000 6074.8  0.629  0  21268  0.579 1471.555786 2044.093750 1319.659668
  3.81029   0.43488   0.42368      2.80000      3.60000 4926.5  0.486  0  20593  1.063 1439.090820 2041.809814 1316.322021
  3.78697   0.43006   0.44567      3.20000      3.60000 5716.3  0.800  0  21282  0.502 1459.488281 2015.766479 1328.152100
  3.76780   0.43972   0.46714      3.60000      3.60000 5937.2  0.800  0  21686  0.522 1460.856689 2020.610352 1318.798828
  3.78273   0.43654   0.44855      4.00000      3.60000 6370.2  0.800  0  22125  0.523 1428.543457 2026.055786 1317.398682
  3.80033   0.43397   0.43108      4.40000      3.60000 6579.2  0.714  0  21860  0.374 1422.402466 1994.396240 1325.990601
  3.80606   0.43074   0.42160      4.80000      3.60000 6564.3  0.771  0  22561  0.525 1432.114624 2013.838257 1327.290283
  3.37266   1.10019   1.16576      0.00000      4.00000 6722.5  0.657  0  21568  0.590 1452.989014 1993.068604 1321.472168
  0.23823   2.03762   6.16794      0.40000      4.00000 6857.6  0.714  0  21998  0.487 1461.887451 1979.167358 1322.482300
  0.22730   2.03982   6.16465      0.80000      4.00000 6548.4  0.629  0  21832  0.758 1457.285889 1979.767944 1326.868774
  0.22939   2.04205   6.16606      1.20000      4.00000 6587.5  0.657  0  21195  0.609 1456.911865 1977.692139 1332.119507
  3.37282   1.09984   1.16734      1.60000      4.00000 6668.3  0.629  0  20668  0.592 1465.667969 1996.353271 1330.273071
  3.37095   1.09439   1.16780      2.00000      4.00000 6633.2  0.714  0  20174  0.684 1490.991699 2018.875244 1337.844727
  0.22987   2.04343   6.16445      2.40000      4.00000 6784.6  0.657  0  21130  0.670 1496.811523 2028.203003 1326.312744
  3.37705   1.09640   1.16287      2.80000      4.00000 5378.2  0.143  0  21852  1.304 1458.827026 2015.779419 1328.195068
  3.79149   0.43219   0.44343      3.20000      4.00000 5488.8  0.686  0  21352  0.810 1453.657837 2034.496826 1333.854126
  3.77239   0.44051   0.46128      3.60000      4.00000 5996.3  0.800  0  22046  0.522 1434.925537 2025.263062 1328.965942
  3.77912   0.43964   0.45003      4.00000      4.00000 6452.5  0.800  0  22202  0.506 1421.548096 2015.041870 1314.893555
  3.79834   0.43563   0.43357      4.40000      4.00000 6470.7  0.714  0  21303  0.404 1429.059937 1993.610229 1318.920166
  3.80260   0.43539   0.42899      4.80000      4.00000 6422.8  0.686  0  21208  0.447 1449.125610 1983.307739 1328.719604
  0.23287   2.03978   6.16530      0.00000      4.40000 6610.4  0.714  0  21147  0.594 1436.836426 1981.015991 1320.031372
  0.23309   2.03742   6.16577      0.40000      4.40000 6462.8  0.714  0  21234  0.602 1447.066040 1988.626099 1317.780762
  0.23235   2.03877   6.16703      0.80000      4.40000 5882.2  0.429  0  21188  0.832 1444.395020 1974.349854 1328.508667
  0.23809   2.03784   6.16834      1.20000      4.40000 6421.0  0.429  0  20692  0.456 1450.412109 1962.804443 1320.971069
  3.37924   1.10460   1.16222      1.60000      4.40000 6909.8  0.714  0  20431  0.457 1448.273926 1968.617798 1326.606934
  0.22667   2.03979   6.16444      2.00000      4.40000 6937.4  0.657  0  21132  0.683 1465.480225 1985.488281 1335.734009
  0.23172   2.03919   6.16833      2.40000      4.40000 7007.2  0.714  0  20584  0.711 1473.174194 1965.011963 1340.133423
  0.23934   2.03770   6.17102      2.80000      4.40000 6345.6  0.600  0  21959  0.454 1471.034668 1954.901611 1333.674194
  3.79439   0.43427   0.43560      3.20000      4.40000 5100.0  0.343  0  21771  1.247 1440.227661 2011.275269 1326.682373
  3.78753   0.43028   0.44373      3.60000      4.40000 5811.9  0.686  0  21740  0.711 1414.621582 2021.994629 1321.956421
  3.79636   0.43457   0.43421      4.00000      4.40000 6008.1  0.714  0  21823  0.401 1409.928955 1989.761230 1311.842041
  3.79990   0.43442   0.42934      4.40000      4.40000 5983.4  0.714  0  21519  0.398 1411.162598 1987.622559 1311.527710
  3.79991   0.43339   0.43202      4.80000      4.40000 6411.6  0.686  0  21848  0.408 1421.596924 1990.363159 1322.303833
  3.37395   1.10570   1.16453      0.00000      4.80000 6705.5  0.714  0  21849  0.591 1459.787231 1962.084351 1334.254639
  0.23684   2.03648   6.16872      0.40000      4.80000 6812.2  0.714  0  22525  0.448 1466.024414 1989.340088 1326.676880
  0.22827   2.03184   6.16680      0.80000      4.80000 6334.9  0.714  0  21469  0.676 1455.044189 2006.398682 1331.819702
  0.23753   2.03601   6.16786      1.20000      4.80000 6612.4  0.543  0  19933  0.486 1456.485474 2008.036865 1325.947388
  0.24074   2.03672   6.17026      1.60000      4.80000 6685.6  0.543  0  20805  0.639 1454.885986 1978.008301 1328.528442
  0.23083   2.03828   6.16849      2.00000      4.80000 6561.5  0.686  0  20584  0.584 1462.924805 1973.649536 1327.718750
  0.23640   2.04156   6.17512      2.40000      4.80000 6933.2  0.714  0  21447  0.459 1449.241821 1953.971924 1331.307373
  3.38130   1.10569   1.15625      2.80000      4.80000 6603.1  0.743  0  21737  0.582 1447.591553 1943.871338 1327.860229
  3.37715   1.11195   1.15066      3.20000      4.80000 5223.0  0.286  0  21602  1.217 1445.132080 1973.681763 1322.647583
  3.79412   0.43603   0.44084      3.60000      4.80000 5762.3  0.886  0  22088  0.683 1450.775757 1981.643433 1323.696777
  3.80309   0.43288   0.43522      4.00000      4.80000 6321.1  0.657  0  21663  0.273 1451.058105 2002.923584 1310.571777
  3.80440   0.43368   0.42967      4.40000      4.80000 6221.8  0.657  0  21532  0.327 1413.572998 2015.123779 1316.261353
  3.81284   0.42884   0.42347      4.80000      4.80000 6430.7  0.686  0  21943  0.444 1416.198364 2017.233154 1324.064209
